 Data from HASI_L4_ATMO_PROFILE_DESCEN.TAB
 Huygens Atmospheric Structure Instrument (HASI)
 Extended below 3 m assuming a constant temperature lapse rate
 and an ideal gas, based on the two lowest-altitude measured points.
 Columns are altitude, pressure, temperature, density.

 1827

  z[m]        p[Pa]  T[K]      rho[kg/m^3]
  146797.0    275.0  167.0835  0.0056589
  146527.0    276.0  166.5414  0.0056572
  146260.0    278.0  165.6781  0.0057393
  145996.0    279.0  165.7259  0.0058771
  145734.0    280.0  165.5562  0.0058542
  145474.0    282.0  164.6073  0.0059132
  145216.0    284.0  164.4417  0.0058803
  144959.0    285.0  164.6781  0.0059319
  144704.0    287.0  164.6320  0.0060082
  144450.0    288.0  164.1974  0.0061051
  144196.0    290.0  164.0475  0.0060584
  143944.0    292.0  163.9082  0.0061074
  143693.0    294.0  163.7678  0.0061542
  143443.0    295.0  163.5750  0.0062168
  143194.0    297.0  163.3629  0.0063200
  142946.0    299.0  163.2095  0.0063200
  142699.0    301.0  162.5804  0.0063348
  142453.0    303.0  162.7684  0.0063742
  141939.0    307.0  162.5020  0.0064930
  141697.0    309.0  162.1113  0.0065811
  141456.0    311.0  162.4280  0.0065541
  141215.0    312.0  162.4400  0.0066045
  140976.0    314.0  162.3658  0.0066466
  140737.0    316.0  162.1745  0.0066873
  140499.0    318.0  161.6203  0.0067339
  140262.0    320.0  161.4676  0.0067783
  140025.0    322.0  161.3329  0.0068168
  139789.0    324.0  161.5400  0.0068636
  139554.0    325.0  161.4681  0.0069110
  139320.0    327.0  161.1037  0.0069500
  139086.0    329.0  161.1281  0.0069979
  138853.0    331.0  160.9973  0.0070370
  138621.0    333.0  160.8987  0.0070926
  138389.0    335.0  160.8823  0.0071337
  138159.0    337.0  160.8952  0.0071721
  137929.0    339.0  160.9901  0.0072116
  137434.0    343.0  160.9059  0.0073162
  137207.0    345.0  160.7256  0.0073660
  136980.0    347.0  160.6114  0.0074255
  136754.0    349.0  160.5206  0.0075533
  136529.0    351.0  160.3106  0.0074957
  136304.0    353.0  160.1663  0.0075127
  136080.0    355.0  160.3800  0.0075319
  135857.0    357.0  160.3257  0.0076270
  135635.0    359.0  160.0204  0.0076750
  135413.0    361.0  159.7374  0.0077149
  135192.0    363.0  159.8034  0.0077806
  134971.0    365.0  160.0390  0.0078346
  134751.0    367.0  160.0160  0.0078775
  134532.0    369.0  159.7363  0.0079094
  134313.0    371.0  159.5514  0.0078806
  134096.0    373.0  159.5871  0.0079760
  133878.0    375.0  159.6509  0.0080919
  133662.0    378.0  159.5023  0.0079966
  133446.0    380.0  159.6751  0.0081046
  133231.0    382.0  160.3249  0.0081629
  133016.0    384.0  160.2397  0.0082062
  132802.0    386.0  160.0511  0.0082490
  132589.0    388.0  160.3172  0.0083003
  132376.0    390.0  160.3418  0.0083163
  132163.0    392.0  160.0794  0.0083909
  131951.0    395.0  160.0127  0.0084651
  131740.0    397.0  160.1180  0.0085394
  131296.0    401.0  159.5253  0.0086728
  131086.0    403.0  158.9700  0.0087703
  130877.0    405.0  158.3853  0.0088237
  130669.0    408.0  157.8125  0.0088775
  130461.0    410.0  157.6723  0.0089389
  130255.0    412.0  157.3357  0.0089366
  130049.0    415.0  157.2668  0.0090638
  129843.0    417.0  157.2149  0.0091427
  129639.0    419.0  156.5815  0.0092099
  129435.0    421.0  156.1996  0.0092322
  129232.0    423.0  156.1916  0.0092193
  129030.0    425.0  155.9310  0.0093337
  128829.0    428.0  155.9731  0.0093768
  128628.0    430.0  156.0443  0.0093521
  128428.0    432.0  156.0900  0.0094913
  128228.0    435.0  156.3718  0.0094948
  128029.0    437.0  156.2060  0.0095002
  127831.0    439.0  156.1511  0.0096337
  127413.0    444.0  156.1898  0.0096836
  127216.0    446.0  156.2028  0.0098144
  127019.0    448.0  156.2057  0.0098421
  126823.0    451.0  156.1954  0.0098572
  126628.0    453.0  156.0923  0.0099621
  126432.0    456.0  156.0262  0.0099743
  126238.0    458.0  156.0064  0.0101080
  126044.0    460.0  155.6830  0.0100970
  125850.0    463.0  155.4293  0.0102420
  125657.0    465.0  155.3673  0.0102900
  125465.0    467.0  155.1973  0.0102750
  125273.0    470.0  155.1107  0.0104040
  125082.0    472.0  155.0671  0.0104440
  124891.0    475.0  154.9481  0.0104360
  124701.0    477.0  155.1892  0.0104470
  124511.0    479.0  155.3110  0.0105410
  124322.0    482.0  155.3786  0.0106700
  124133.0    484.0  155.3479  0.0106630
  123945.0    486.0  155.0859  0.0107210
  123756.0    489.0  155.2662  0.0107660
  123569.0    491.0  155.3407  0.0108230
  123382.0    494.0  155.2178  0.0108560
  123195.0    496.0  155.2593  0.0109030
  123008.0    499.0  155.4861  0.0110000
  122823.0    501.0  155.5412  0.0110690
  122637.0    504.0  155.4183  0.0110890
  122452.0    506.0  155.4979  0.0111110
  122064.0    511.0  155.4099  0.0112830
  121881.0    514.0  155.2250  0.0113310
  121698.0    516.0  155.0506  0.0113950
  121517.0    519.0  155.0922  0.0114510
  121335.0    522.0  155.1766  0.0115470
  121154.0    524.0  155.1035  0.0115060
  120974.0    527.0  155.0794  0.0116240
  120794.0    529.0  155.3596  0.0115630
  120614.0    532.0  155.6653  0.0116950
  120435.0    534.0  155.6939  0.0117280
  120255.0    536.0  155.7188  0.0118310
  120075.0    539.0  155.7134  0.0118280
  119896.0    542.0  155.7482  0.0118960
  119718.0    545.0  155.7869  0.0119930
  119539.0    547.0  155.6924  0.0120610
  119362.0    550.0  155.6506  0.0121000
  119184.0    552.0  155.1475  0.0121980
  119007.0    556.0  155.1468  0.0123590
  118636.0    561.0  154.7333  0.0124800
  118462.0    564.0  154.2348  0.0125440
  118288.0    566.0  154.0735  0.0125590
  118114.0    569.0  153.7520  0.0126690
  117941.0    571.0  153.6432  0.0127380
  117769.0    574.0  153.6508  0.0127690
  117597.0    576.0  153.6680  0.0128830
  117425.0    579.0  153.5463  0.0129210
  117254.0    582.0  153.4183  0.0129400
  117084.0    584.0  153.3639  0.0130000
  116913.0    587.0  153.2918  0.0130980
  116743.0    590.0  153.2058  0.0131390
  116573.0    593.0  153.2888  0.0131600
  116404.0    595.0  153.5304  0.0132150
  116234.0    598.0  153.6324  0.0132770
  116066.0    601.0  153.7437  0.0133860
  115897.0    603.0  153.6571  0.0134690
  115729.0    606.0  153.7461  0.0135030
  115562.0    609.0  153.6435  0.0135620
  115394.0    612.0  153.4462  0.0136270
  115227.0    615.0  153.4028  0.0137300
  115060.0    618.0  153.3486  0.0138050
  114894.0    620.0  153.2404  0.0138440
  114728.0    623.0  153.2330  0.0139350
  114563.0    626.0  153.2941  0.0140320
  114397.0    629.0  153.0859  0.0141240
  114233.0    632.0  152.9971  0.0142050
  113878.0    638.0  151.9753  0.0143750
  113715.0    640.0  151.7391  0.0144550
  113553.0    643.0  151.5898  0.0145480
  113391.0    646.0  151.4320  0.0146290
  113229.0    649.0  151.3423  0.0146680
  113068.0    652.0  151.2939  0.0147990
  112907.0    655.0  151.2032  0.0149630
  112747.0    658.0  151.0294  0.0150220
  112587.0    661.0  150.5789  0.0151200
  112428.0    664.0  150.0612  0.0152000
  112271.0    667.0  149.6800  0.0152710
  112114.0    669.0  149.2517  0.0153530
  111957.0    673.0  149.0536  0.0154380
  111801.0    675.0  148.9689  0.0155320
  111645.0    678.0  148.8793  0.0156460
  111490.0    681.0  148.7588  0.0157490
  111335.0    684.0  148.6157  0.0157880
  111181.0    687.0  148.3932  0.0158990
  110855.0    695.0  148.0463  0.0160710
  110689.0    698.0  147.9403  0.0161750
  110501.0    702.0  147.5250  0.0162900
  110294.0    706.0  147.3816  0.0164410
  110069.0    710.0  147.1780  0.0165790
  109828.0    715.0  146.8785  0.0166210
  109571.0    720.0  146.6547  0.0167290
  109300.0    726.0  146.4089  0.0170560
  109018.0    732.0  146.2690  0.0170620
  108726.0    738.0  146.2061  0.0171730
  108424.0    744.0  146.2265  0.0173070
  108115.0    750.0  146.2281  0.0174500
  107799.0    757.0  146.0107  0.0177310
  107477.0    764.0  145.9061  0.0177240
  107150.0    771.0  146.1475  0.0179200
  106819.0    779.0  146.1200  0.0181740
  106484.0    787.0  146.1995  0.0181350
  106147.0    794.0  146.3173  0.0183920
  105807.0    802.0  145.6353  0.0189180
  105464.0    810.0  145.0624  0.0189960
  105121.0    818.0  144.6780  0.0191930
  104777.0    826.0  144.0051  0.0194560
  104432.0    834.0  143.6693  0.0197510
  104088.0    843.0  143.3275  0.0199630
  103745.0    851.0  143.2144  0.0200810
  103402.0    860.0  143.0589  0.0204180
  103060.0    869.0  143.2078  0.0204990
  102342.0    887.0  143.2425  0.0209790
  102004.0    896.0  143.0093  0.0211580
  101667.0    905.0  142.9748  0.0213400
  101331.0    914.0  143.0917  0.0215230
  100997.0    923.0  143.2319  0.0215840
  100664.0    932.0  142.9576  0.0218360
  100333.0    941.0  142.3533  0.0222720
  100003.0    951.0  141.9533  0.0226990
   99675.0    960.0  141.6807  0.0229240
   99348.0    969.0  141.1972  0.0231140
   99023.0    979.0  141.2710  0.0233700
   98699.0    988.0  141.4031  0.0235470
   98378.0    997.0  141.3969  0.0237930
   98057.0   1007.0  141.4889  0.0241160
   97739.0   1017.0  141.5910  0.0243390
   97422.0   1026.0  141.5848  0.0245220
   97106.0   1036.0  141.0152  0.0247940
   96792.0   1046.0  140.7861  0.0251970
   96145.0   1066.0  140.6244  0.0256210
   95836.0   1076.0  140.2352  0.0259590
   95530.0   1086.0  139.8808  0.0262260
   95224.0   1096.0  139.8341  0.0265510
   94921.0   1106.0  139.3985  0.0268420
   94619.0   1116.0  139.1443  0.0270190
   94319.0   1127.0  138.9840  0.0273570
   94021.0   1137.0  138.6094  0.0278070
   93724.0   1147.0  138.1494  0.0281320
   93429.0   1157.0  137.7605  0.0283390
   93136.0   1167.0  137.6535  0.0286030
   92845.0   1178.0  137.6548  0.0288840
   92556.0   1188.0  137.4123  0.0291560
   92268.0   1199.0  137.1024  0.0294930
   91981.0   1210.0  137.1303  0.0297350
   91696.0   1220.0  137.0661  0.0301060
   91413.0   1231.0  137.2329  0.0303820
   91131.0   1242.0  137.3913  0.0304490
   90850.0   1253.0  137.3004  0.0307220
   90569.0   1265.0  136.8974  0.0311560
   90289.0   1275.0  136.8561  0.0314470
   90011.0   1286.0  136.9325  0.0316940
   89735.0   1298.0  136.7352  0.0319650
   89459.0   1310.0  136.2915  0.0324400
   89185.0   1321.0  136.0030  0.0328140
   88912.0   1331.0  135.7240  0.0330980
   88641.0   1343.0  135.6434  0.0332680
   88081.0   1366.0  135.5571  0.0338120
   87815.0   1378.0  135.1072  0.0340210
   87551.0   1390.0  134.4854  0.0348180
   87288.0   1401.0  133.6457  0.0354160
   87026.0   1412.0  132.9552  0.0357390
   86766.0   1424.0  132.9719  0.0361790
   86507.0   1435.0  132.9017  0.0364680
   86250.0   1447.0  132.6714  0.0367000
   85994.0   1459.0  132.5719  0.0371010
   85739.0   1471.0  132.4708  0.0374910
   85485.0   1483.0  132.3132  0.0377540
   85232.0   1495.0  132.1957  0.0380020
   84981.0   1507.0  132.0179  0.0382560
   84731.0   1520.0  131.5164  0.0387040
   84482.0   1532.0  131.0046  0.0393290
   84234.0   1545.0  130.5808  0.0396680
   83988.0   1557.0  130.0978  0.0402910
   83743.0   1570.0  129.8956  0.0406910
   83229.0   1596.0  129.6106  0.0413960
   82989.0   1608.0  129.0964  0.0418730
   82749.0   1621.0  128.6239  0.0425560
   82511.0   1634.0  128.3749  0.0428720
   82274.0   1647.0  128.3501  0.0431820
   82038.0   1660.0  128.0624  0.0437060
   81804.0   1673.0  127.8875  0.0441790
   81570.0   1686.0  127.7881  0.0444400
   81338.0   1700.0  127.7715  0.0449130
   81107.0   1713.0  127.6947  0.0452830
   80878.0   1726.0  127.5011  0.0456190
   80650.0   1740.0  127.2561  0.0461530
   80423.0   1753.0  126.6993  0.0466120
   80198.0   1767.0  125.9513  0.0471770
   79973.0   1781.0  125.7450  0.0477810
   79750.0   1794.0  125.2253  0.0482140
   79528.0   1808.0  125.0140  0.0487520
   79307.0   1821.0  124.9076  0.0493470
   79087.0   1835.0  124.6756  0.0497170
   78867.0   1849.0  124.4545  0.0501770
   78648.0   1863.0  124.0979  0.0506670
   78431.0   1877.0  123.7050  0.0511830
   78214.0   1891.0  123.3761  0.0518280
   77999.0   1906.0  122.9315  0.0523980
   77785.0   1921.0  122.2179  0.0532350
   77572.0   1935.0  121.3538  0.0540390
   77360.0   1949.0  120.7682  0.0546260
   76899.0   1980.0  120.4561  0.0555980
   76694.0   1994.0  120.3431  0.0560910
   76490.0   2009.0  120.2342  0.0564100
   76286.0   2024.0  120.1798  0.0569850
   76084.0   2039.0  119.6024  0.0578760
   75883.0   2054.0  118.5738  0.0587180
   75682.0   2068.0  117.9785  0.0594280
   75483.0   2083.0  117.8700  0.0598030
   75285.0   2099.0  117.9015  0.0602390
   75088.0   2114.0  117.9244  0.0606100
   74890.0   2129.0  117.8110  0.0612870
   74693.0   2145.0  117.3851  0.0619470
   74498.0   2160.0  116.8054  0.0625520
   74303.0   2176.0  116.4182  0.0631950
   74109.0   2192.0  116.1064  0.0639130
   73916.0   2208.0  115.8810  0.0645080
   73724.0   2224.0  115.6019  0.0650980
   73533.0   2239.0  115.1615  0.0657060
   73130.0   2274.0  114.8379  0.0670400
   72942.0   2290.0  114.5742  0.0678190
   72755.0   2306.0  114.1039  0.0685070
   72569.0   2323.0  113.7995  0.0689710
   72383.0   2339.0  113.4218  0.0698210
   72199.0   2356.0  112.8602  0.0708660
   72016.0   2373.0  112.3608  0.0715760
   71834.0   2389.0  112.0816  0.0722510
   71652.0   2406.0  111.6980  0.0730590
   71472.0   2423.0  110.7979  0.0740010
   71292.0   2441.0  110.2135  0.0750100
   71113.0   2458.0  108.9747  0.0763510
   70935.0   2476.0  107.6919  0.0776580
   70759.0   2494.0  107.0380  0.0785840
   70584.0   2512.0  106.4658  0.0796270
   70411.0   2530.0  105.9105  0.0807450
   70238.0   2548.0  105.6470  0.0813870
   70067.0   2565.0  105.4044  0.0819830
   69896.0   2584.0  105.1953  0.0828490
   69727.0   2601.0  104.9272  0.0836010
   69559.0   2619.0  104.6506  0.0844000
   69391.0   2636.0  104.4276  0.0849880
   69225.0   2656.0  103.9429  0.0861890
   69059.0   2674.0  103.0941  0.0875060
   68894.0   2693.0  102.7672  0.0883190
   68731.0   2711.0  102.5121  0.0892320
   68568.0   2729.0  102.3450  0.0899450
   68220.0   2769.0  101.6221  0.0918910
   68060.0   2787.0  101.0542  0.0928800
   67902.0   2807.0  100.0700  0.0943070
   67745.0   2827.0   99.4317  0.0956400
   67588.0   2846.0   98.9222  0.0967550
   67433.0   2865.0   98.3677  0.0976020
   67278.0   2886.0   97.6516  0.0991150
   67125.0   2906.0   96.8306  0.1008100
   66973.0   2925.0   96.3281  0.1018400
   66821.0   2945.0   95.7701  0.1032300
   66670.0   2966.0   95.1436  0.1047100
   66520.0   2985.0   93.8227  0.1068000
   66372.0   3006.0   93.2995  0.1083100
   66224.0   3027.0   92.9352  0.1095400
   66077.0   3048.0   92.5598  0.1108100
   65932.0   3069.0   91.9974  0.1122200
   65787.0   3090.0   91.5026  0.1136100
   65643.0   3111.0   91.2121  0.1148700
   65335.0   3157.0   90.2608  0.1178600
   65195.0   3178.0   89.6643  0.1193300
   65056.0   3200.0   89.0607  0.1209800
   64918.0   3222.0   88.4477  0.1226100
   64781.0   3244.0   87.8169  0.1242200
   64645.0   3267.0   87.2609  0.1259700
   64510.0   3289.0   86.8858  0.1274000
   64375.0   3312.0   86.4213  0.1288100
   64241.0   3335.0   86.0228  0.1302600
   64108.0   3358.0   85.3737  0.1322000
   63975.0   3381.0   84.7235  0.1339200
   63844.0   3404.0   84.1934  0.1358400
   63713.0   3427.0   83.5138  0.1377200
   63583.0   3451.0   82.8051  0.1396800
   63453.0   3475.0   82.4559  0.1415100
   63325.0   3499.0   82.1821  0.1430500
   63198.0   3522.0   81.9649  0.1442900
   63071.0   3546.0   81.4783  0.1461200
   62945.0   3570.0   81.2285  0.1476300
   62820.0   3595.0   80.8336  0.1492800
   62696.0   3619.0   80.6231  0.1508200
   62572.0   3644.0   80.4184  0.1521000
   62449.0   3669.0   80.1800  0.1535800
   62327.0   3693.0   79.8892  0.1551000
   62205.0   3718.0   79.6040  0.1566100
   62084.0   3742.0   79.3317  0.1580600
   61963.0   3768.0   79.0343  0.1596000
   61707.0   3823.0   78.3970  0.1630900
   61587.0   3849.0   78.1139  0.1646800
   61469.0   3874.0   77.8814  0.1663000
   61351.0   3899.0   77.7744  0.1680300
   61233.0   3925.0   77.5580  0.1693200
   61116.0   3951.0   77.3540  0.1708700
   61000.0   3977.0   77.2404  0.1723200
   60884.0   4004.0   77.1725  0.1737500
   60769.0   4031.0   77.1211  0.1750100
   60654.0   4056.0   77.0965  0.1764600
   60541.0   4083.0   76.9568  0.1775100
   60428.0   4109.0   76.6750  0.1791300
   60315.0   4136.0   76.5542  0.1808200
   60203.0   4162.0   76.4477  0.1823100
   60091.0   4189.0   76.1580  0.1836500
   59980.0   4217.0   75.7335  0.1856600
   59870.0   4244.0   75.4721  0.1878400
   59760.0   4272.0   75.3803  0.1895500
   59525.0   4330.0   75.1723  0.1927700
   59415.0   4359.0   75.0730  0.1942400
   59307.0   4386.0   75.0804  0.1958500
   59198.0   4414.0   75.1477  0.1969700
   59090.0   4442.0   75.1946  0.1980400
   58983.0   4470.0   75.1343  0.1992000
   58875.0   4499.0   75.0426  0.2004900
   58769.0   4528.0   74.9396  0.2019400
   58662.0   4558.0   74.8555  0.2033500
   58556.0   4585.0   74.7872  0.2051200
   58451.0   4614.0   74.5949  0.2066500
   58346.0   4643.0   74.3759  0.2083300
   58241.0   4670.0   74.1779  0.2103700
   58137.0   4699.0   74.0740  0.2121600
   58033.0   4728.0   73.9764  0.2138800
   57930.0   4758.0   73.8673  0.2152600
   57827.0   4786.0   73.7705  0.2170200
   57725.0   4817.0   73.7410  0.2184200
   57622.0   4845.0   73.7055  0.2202800
   57521.0   4875.0   73.5780  0.2215100
   57419.0   4905.0   73.4655  0.2230300
   57318.0   4935.0   73.4409  0.2249300
   57217.0   4965.0   73.4292  0.2263900
   57117.0   4995.0   73.3212  0.2277700
   57017.0   5025.0   73.2120  0.2294400
   56917.0   5055.0   73.1075  0.2311900
   56818.0   5086.0   73.0215  0.2328000
   56606.0   5152.0   72.8470  0.2364300
   56508.0   5183.0   72.7872  0.2380800
   56410.0   5214.0   72.7844  0.2397300
   56312.0   5244.0   72.7676  0.2413200
   56214.0   5276.0   72.7341  0.2426500
   56117.0   5306.0   72.6637  0.2443000
   56020.0   5338.0   72.6495  0.2458400
   55924.0   5369.0   72.5733  0.2474100
   55827.0   5400.0   72.5717  0.2491300
   55732.0   5432.0   72.5301  0.2505600
   55636.0   5464.0   72.4683  0.2520800
   55541.0   5495.0   72.4092  0.2537600
   55446.0   5527.0   72.3766  0.2555400
   55352.0   5559.0   72.3494  0.2571200
   55258.0   5592.0   72.2786  0.2585700
   55164.0   5625.0   72.1865  0.2602200
   55070.0   5656.0   72.1019  0.2621800
   54977.0   5688.0   72.0279  0.2640500
   54778.0   5758.0   71.8405  0.2678600
   54685.0   5791.0   71.8038  0.2697100
   54593.0   5824.0   71.8141  0.2714500
   54501.0   5856.0   71.8125  0.2730900
   54409.0   5889.0   71.8126  0.2746300
   54317.0   5922.0   71.7748  0.2761700
   54226.0   5954.0   71.7170  0.2778800
   54135.0   5988.0   71.6698  0.2795400
   54044.0   6022.0   71.6363  0.2812200
   53954.0   6056.0   71.5939  0.2829200
   53864.0   6090.0   71.5342  0.2845600
   53775.0   6124.0   71.4795  0.2864100
   53686.0   6157.0   71.3888  0.2883600
   53598.0   6191.0   71.3712  0.2902000
   53509.0   6226.0   71.4108  0.2918900
   53421.0   6259.0   71.3765  0.2935000
   53333.0   6292.0   71.3530  0.2952300
   53246.0   6326.0   71.3212  0.2969300
   53159.0   6361.0   71.2886  0.2985200
   53071.0   6395.0   71.2595  0.3002200
   52985.0   6430.0   71.2207  0.3020300
   52898.0   6465.0   71.1989  0.3038200
   52812.0   6500.0   71.2085  0.3055200
   52726.0   6536.0   71.1884  0.3071500
   52640.0   6570.0   71.2280  0.3088400
   52554.0   6605.0   71.2540  0.3105700
   52469.0   6640.0   71.2602  0.3120200
   52286.0   6714.0   71.1191  0.3157700
   52201.0   6749.0   71.1358  0.3177200
   52116.0   6785.0   71.1398  0.3194700
   52032.0   6821.0   71.1274  0.3210300
   51948.0   6857.0   71.1247  0.3227200
   51864.0   6894.0   71.1398  0.3243900
   51780.0   6929.0   71.1324  0.3261000
   51696.0   6965.0   71.1136  0.3279100
   51613.0   7002.0   71.0795  0.3295700
   51530.0   7038.0   71.0267  0.3313600
   51447.0   7073.0   71.0110  0.3333800
